# Sky Radiance Data from Lewis' Zibbordi & Voss model :
# Columns: 1. Lambda (nm), 2. Direct, 3. Diffuse (total), 4. Diffuse (cosine), 5. Ratio Direct to Diffuse, 6. Percent diffuse(1), 7. Total Optical Depth, 8. downward Direct path Transmittance, 9. upward path Transmittance (vertical), 10. Percent diffuse(2) on a horizontal plane, 11. Hemispherical integral cf. 2 Pi.
300.00	0.74	4.759110	0.000000	0.155905	86.512281	4.652139	0.001404	0.009541	0.000000	1.273240
304.00	5.01	29.548116	0.000000	0.169463	85.509323	3.331350	0.009062	0.035745	0.000000	1.273240
308.00	15.48	84.378090	0.000000	0.183439	84.499515	2.573229	0.026431	0.076289	0.000000	1.273240
312.00	33.46	169.221674	0.000000	0.197708	83.492784	2.095407	0.051894	0.123020	0.000000	1.273240
316.00	59.60	280.900797	0.000000	0.212186	82.495591	1.759544	0.083380	0.172123	0.000000	1.273240
320.00	81.45	359.055279	0.000000	0.226847	81.509782	1.571338	0.108760	0.207767	0.000000	1.273240
324.00	104.97	434.475088	0.000000	0.241604	80.540992	1.417708	0.135106	0.242269	0.000000	1.273240
328.00	145.03	565.576365	0.000000	0.256428	79.590684	1.303202	0.158814	0.271661	0.000000	1.273240
332.00	172.02	634.077086	0.000000	0.271288	78.660399	1.219789	0.178664	0.295293	0.000000	1.273240
336.00	179.04	625.683071	0.000000	0.286150	77.751424	1.158258	0.194880	0.314033	0.000000	1.273240
340.00	201.16	668.329202	0.000000	0.300985	76.864847	1.108217	0.209147	0.330147	0.000000	1.273240
344.00	199.44	631.599966	0.000000	0.315766	76.001353	1.063848	0.222668	0.345125	0.000000	1.273240
348.00	218.29	660.541565	0.000000	0.330473	75.161262	1.023251	0.235804	0.359424	0.000000	1.273240
352.00	246.83	715.276388	0.000000	0.345087	74.344660	0.985798	0.248610	0.373141	0.000000	1.273240
356.00	267.80	744.742649	0.000000	0.359592	73.551462	0.951241	0.261041	0.386262	0.000000	1.273240
360.00	257.03	687.281182	0.000000	0.373977	72.781436	0.919715	0.272923	0.398633	0.000000	1.273240
364.00	310.33	799.339581	0.000000	0.388227	72.034316	0.889816	0.284691	0.410732	0.000000	1.273240
368.00	341.12	847.856437	0.000000	0.402334	71.309696	0.861436	0.296330	0.422555	0.000000	1.273240
372.00	348.96	838.258944	0.000000	0.416288	70.607101	0.834478	0.307826	0.434101	0.000000	1.273240
376.00	353.98	823.051499	0.000000	0.430083	69.926007	0.808851	0.319169	0.445369	0.000000	1.273240
380.00	400.47	902.535414	0.000000	0.443713	69.265850	0.784472	0.330346	0.456361	0.000000	1.273240
384.00	337.54	738.328134	0.000000	0.457173	68.626039	0.761263	0.341351	0.467076	0.000000	1.273240
388.00	385.47	819.351929	0.000000	0.470459	68.005964	0.739151	0.352176	0.477519	0.000000	1.273240
392.00	412.02	852.036249	0.000000	0.483569	67.405005	0.718072	0.362815	0.487692	0.000000	1.273240
396.00	436.60	879.348216	0.000000	0.496501	66.822539	0.697962	0.373264	0.497598	0.000000	1.273240
400.00	654.16	1284.547892	0.000000	0.509253	66.257943	0.678765	0.383520	0.507243	0.000000	1.273240
404.00	652.79	1250.973382	0.000000	0.521825	65.710599	0.660427	0.393579	0.516630	0.000000	1.273240
408.00	680.46	1273.763183	0.000000	0.534215	65.179899	0.642899	0.403441	0.525766	0.000000	1.273240
412.00	713.94	1306.561046	0.000000	0.546426	64.665246	0.626135	0.413105	0.534654	0.000000	1.273240
416.00	739.82	1324.761449	0.000000	0.558456	64.166057	0.610091	0.422569	0.543301	0.000000	1.273240
420.00	756.05	1325.677943	0.000000	0.570308	63.681763	0.594727	0.431836	0.551713	0.000000	1.273240
424.00	752.49	1292.977838	0.000000	0.581983	63.211812	0.580007	0.440905	0.559895	0.000000	1.273240
428.00	708.60	1193.975312	0.000000	0.593482	62.755670	0.565894	0.449779	0.567852	0.000000	1.273240
432.00	734.91	1215.109717	0.000000	0.604806	62.312821	0.552357	0.458459	0.575592	0.000000	1.273240
436.00	823.36	1336.720625	0.000000	0.615959	61.882764	0.539364	0.466946	0.583119	0.000000	1.273240
440.00	835.62	1332.858851	0.000000	0.626942	61.465021	0.526888	0.475245	0.590440	0.000000	1.273240
444.00	914.77	1434.351654	0.000000	0.637757	61.059127	0.514900	0.483357	0.597560	0.000000	1.273240
448.00	998.72	1540.268453	0.000000	0.648407	60.664640	0.503347	0.491306	0.604504	0.000000	1.273240
452.00	1033.36	1568.322046	0.000000	0.658894	60.281126	0.492344	0.498998	0.611192	0.000000	1.273240
456.00	1025.06	1531.725424	0.000000	0.669221	59.908169	0.481940	0.506383	0.617584	0.000000	1.273240
460.00	1045.55	1538.950438	0.000000	0.679391	59.545377	0.472113	0.513458	0.623683	0.000000	1.273240
464.00	1046.04	1517.307344	0.000000	0.689407	59.192384	0.462664	0.520354	0.629604	0.000000	1.273240
468.00	1050.05	1501.636557	0.000000	0.699269	58.848836	0.453395	0.527208	0.635467	0.000000	1.273240
472.00	1066.57	1504.371458	0.000000	0.708982	58.514370	0.444648	0.533760	0.641050	0.000000	1.273240
476.00	1095.02	1523.931300	0.000000	0.718548	58.188652	0.436408	0.540007	0.646354	0.000000	1.273240
480.00	1124.59	1544.836196	0.000000	0.727970	57.871387	0.428297	0.546226	0.651618	0.000000	1.273240
484.00	1068.65	1449.514359	0.000000	0.737250	57.562247	0.420723	0.552098	0.656572	0.000000	1.273240
488.00	1068.54	1431.610763	0.000000	0.746391	57.260944	0.413612	0.557670	0.661258	0.000000	1.273240
492.00	1093.20	1447.194396	0.000000	0.755396	56.967207	0.406830	0.563036	0.665758	0.000000	1.273240
496.00	1106.93	1448.356951	0.000000	0.764267	56.680770	0.400365	0.568198	0.670076	0.000000	1.273240
500.00	1069.34	1383.351109	0.000000	0.773007	56.401371	0.394326	0.573064	0.674134	0.000000	1.273240
504.00	1115.75	1427.494857	0.000000	0.781617	56.128777	0.388522	0.577779	0.678058	0.000000	1.273240
508.00	1137.12	1439.207311	0.000000	0.790102	55.862753	0.382943	0.582348	0.681851	0.000000	1.273240
512.00	1120.19	1402.941004	0.000000	0.798462	55.603076	0.377579	0.586775	0.685519	0.000000	1.273240
516.00	1082.97	1342.470229	0.000000	0.806700	55.349538	0.372301	0.591165	0.689147	0.000000	1.273240
520.00	1075.80	1320.289380	0.000000	0.814818	55.101948	0.366860	0.595724	0.692907	0.000000	1.273240
524.00	1126.01	1368.470142	0.000000	0.822821	54.860007	0.363047	0.598940	0.695554	0.000000	1.273240
528.00	1162.84	1399.814722	0.000000	0.830709	54.623640	0.358875	0.602478	0.698462	0.000000	1.273240
532.00	1177.11	1403.854705	0.000000	0.838484	54.392637	0.354817	0.605940	0.701302	0.000000	1.273240
536.00	1167.42	1379.688779	0.000000	0.846148	54.166824	0.350925	0.609279	0.704037	0.000000	1.273240
540.00	1140.42	1335.854969	0.000000	0.853704	53.946054	0.346832	0.612810	0.706924	0.000000	1.273240
544.00	1165.31	1353.200126	0.000000	0.861153	53.730147	0.342892	0.616228	0.709715	0.000000	1.273240
548.00	1179.01	1357.533907	0.000000	0.868497	53.518952	0.339100	0.619537	0.712411	0.000000	1.273240
552.00	1181.61	1349.267937	0.000000	0.875740	53.312286	0.336049	0.622211	0.714588	0.000000	1.273240
556.00	1173.48	1329.147454	0.000000	0.882884	53.110017	0.333614	0.624355	0.716331	0.000000	1.273240
560.00	1155.31	1298.208733	0.000000	0.889928	52.912056	0.330949	0.626708	0.718242	0.000000	1.273240
564.00	1164.89	1298.828868	0.000000	0.896876	52.718267	0.328169	0.629172	0.720241	0.000000	1.273240
568.00	1157.31	1280.594834	0.000000	0.903729	52.528482	0.326051	0.631057	0.721768	0.000000	1.273240
572.00	1161.55	1275.746002	0.000000	0.910488	52.342655	0.323269	0.633541	0.723779	0.000000	1.273240
576.00	1178.77	1285.247394	0.000000	0.917152	52.160695	0.319399	0.637012	0.726586	0.000000	1.273240
580.00	1181.75	1279.330665	0.000000	0.923726	51.982463	0.314916	0.641057	0.729850	0.000000	1.273240
584.00	1177.45	1265.784726	0.000000	0.930211	51.807813	0.310538	0.645032	0.733053	0.000000	1.273240
588.00	1152.69	1230.702689	0.000000	0.936609	51.636652	0.306079	0.649105	0.736328	0.000000	1.273240
592.00	1149.84	1219.440228	0.000000	0.942924	51.468818	0.302618	0.652285	0.738882	0.000000	1.273240
596.00	1161.96	1224.198222	0.000000	0.949158	51.304214	0.300209	0.654508	0.740663	0.000000	1.273240
600.00	1131.56	1184.493441	0.000000	0.955309	51.142803	0.297890	0.656654	0.742383	0.000000	1.273240
604.00	1151.63	1197.890219	0.000000	0.961381	50.984495	0.295658	0.658727	0.744042	0.000000	1.273240
608.00	1149.24	1188.007814	0.000000	0.967367	50.829362	0.290810	0.663251	0.747658	0.000000	1.273240
612.00	1148.27	1179.805021	0.000000	0.973274	50.677200	0.285442	0.668297	0.751682	0.000000	1.273240
616.00	1156.39	1181.069201	0.000000	0.979105	50.527879	0.280453	0.673022	0.755442	0.000000	1.273240
620.00	1164.44	1182.340732	0.000000	0.984862	50.381339	0.275539	0.677707	0.759163	0.000000	1.273240
624.00	1151.24	1162.225328	0.000000	0.990545	50.237507	0.270698	0.682355	0.762847	0.000000	1.273240
628.00	1137.68	1142.071870	0.000000	0.996155	50.096311	0.265927	0.686967	0.766495	0.000000	1.273240
632.00	1132.06	1130.142555	0.000000	1.001695	49.957670	0.261465	0.691309	0.769923	0.000000	1.273240
636.00	1134.54	1126.469267	0.000000	1.007165	49.821516	0.257309	0.695377	0.773129	0.000000	1.273240
640.00	1136.91	1122.800743	0.000000	1.012566	49.687800	0.253217	0.699407	0.776300	0.000000	1.273240
644.00	1136.54	1116.557462	0.000000	1.017900	49.556466	0.249066	0.703517	0.779528	0.000000	1.273240
648.00	1136.04	1110.314885	0.000000	1.023167	49.427448	0.244976	0.707592	0.782723	0.000000	1.273240
652.00	1132.71	1101.459696	0.000000	1.028370	49.300681	0.241063	0.711512	0.785792	0.000000	1.273240
656.00	1126.52	1089.993175	0.000000	1.033508	49.176108	0.237327	0.715275	0.788733	0.000000	1.273240
660.00	1120.14	1078.529167	0.000000	1.038583	49.053682	0.233645	0.719003	0.791643	0.000000	1.273240
664.00	1111.23	1064.805484	0.000000	1.043596	48.933345	0.230136	0.722575	0.794425	0.000000	1.273240
668.00	1102.12	1051.087456	0.000000	1.048548	48.815051	0.226678	0.726111	0.797177	0.000000	1.273240
672.00	1095.65	1040.068262	0.000000	1.053440	48.698763	0.223090	0.729799	0.800043	0.000000	1.273240
676.00	1091.86	1031.742347	0.000000	1.058272	48.584433	0.219370	0.733642	0.803025	0.000000	1.273240
680.00	1087.94	1023.414453	0.000000	1.063047	48.472003	0.215697	0.737457	0.805980	0.000000	1.273240
684.00	1072.71	1004.628569	0.000000	1.067770	48.361289	0.214532	0.738670	0.806919	0.000000	1.273240
688.00	1057.73	986.291212	0.000000	1.072436	48.252402	0.213167	0.740096	0.808021	0.000000	1.273240
692.00	1053.58	978.217021	0.000000	1.077046	48.145308	0.211468	0.741873	0.809395	0.000000	1.273240
696.00	1060.16	980.179112	0.000000	1.081600	48.039959	0.209550	0.743885	0.810949	0.000000	1.273240
700.00	1066.76	982.188148	0.000000	1.086102	47.936303	0.207640	0.745894	0.812500	0.000000	1.273240
704.00	1064.69	976.295178	0.000000	1.090546	47.834398	0.204031	0.749705	0.815437	0.000000	1.273240
708.00	1062.63	970.496647	0.000000	1.094938	47.734113	0.200389	0.753570	0.818412	0.000000	1.273240
712.00	1018.47	926.435574	0.000000	1.099345	47.633902	0.223118	0.729771	0.800021	0.000000	1.273240
716.00	972.11	880.771552	0.000000	1.103704	47.535208	0.246388	0.706183	0.781619	0.000000	1.273240
720.00	937.35	845.984851	0.000000	1.107995	47.438444	0.262318	0.690477	0.769267	0.000000	1.273240
724.00	943.11	847.977700	0.000000	1.112186	47.344318	0.257977	0.694722	0.772613	0.000000	1.273240
728.00	948.94	850.051287	0.000000	1.116329	47.251639	0.253614	0.699015	0.775991	0.000000	1.273240
732.00	955.43	852.750656	0.000000	1.120408	47.160732	0.243012	0.709557	0.784262	0.000000	1.273240
736.00	966.37	859.442883	0.000000	1.124417	47.071732	0.223256	0.729628	0.799910	0.000000	1.273240
740.00	992.92	879.973758	0.000000	1.128351	46.984733	0.192177	0.762358	0.825161	0.000000	1.273240
744.00	992.61	876.629283	0.000000	1.132304	46.897618	0.186383	0.768620	0.829956	0.000000	1.273240
748.00	993.82	874.675706	0.000000	1.136210	46.811867	0.179458	0.776172	0.835723	0.000000	1.273240
752.00	831.18	728.852575	0.000000	1.140399	46.720269	0.297383	0.657125	0.742760	0.000000	1.273240
756.00	709.04	619.522361	0.000000	1.144502	46.630869	0.398632	0.569590	0.671238	0.000000	1.273240
760.00	630.39	548.883430	0.000000	1.148487	46.544372	0.470415	0.514690	0.624743	0.000000	1.273240
764.00	687.69	596.920491	0.000000	1.152059	46.467135	0.400638	0.567980	0.669893	0.000000	1.273240
768.00	774.75	670.472585	0.000000	1.155527	46.392371	0.307958	0.647386	0.734946	0.000000	1.273240
772.00	866.97	748.047688	0.000000	1.158979	46.318195	0.225034	0.727799	0.798489	0.000000	1.273240
776.00	896.29	770.968728	0.000000	1.162552	46.241659	0.203263	0.750518	0.816064	0.000000	1.273240
780.00	953.56	817.779390	0.000000	1.166032	46.167380	0.161179	0.796465	0.851140	0.000000	1.273240
784.00	935.91	800.202043	0.000000	1.169586	46.091745	0.161855	0.795705	0.850564	0.000000	1.273240
788.00	918.60	783.048775	0.000000	1.173101	46.017181	0.162293	0.795213	0.850192	0.000000	1.273240
792.00	910.14	773.549266	0.000000	1.176579	45.943659	0.162635	0.794829	0.849902	0.000000	1.273240
796.00	910.49	771.593111	0.000000	1.180019	45.871158	0.162905	0.794526	0.849672	0.000000	1.273240
800.00	910.99	769.794885	0.000000	1.183422	45.799660	0.163063	0.794349	0.849538	0.000000	1.273240
804.00	883.11	744.089054	0.000000	1.186827	45.728345	0.177193	0.778658	0.837618	0.000000	1.273240
808.00	862.29	724.505722	0.000000	1.190183	45.658286	0.186106	0.768921	0.830186	0.000000	1.273240
812.00	829.93	695.359406	0.000000	1.193527	45.588675	0.203683	0.750073	0.815721	0.000000	1.273240
816.00	793.21	662.753096	0.000000	1.196846	45.519797	0.224614	0.728231	0.798825	0.000000	1.273240
820.00	762.62	635.456064	0.000000	1.200120	45.452072	0.241174	0.711401	0.785705	0.000000	1.273240
824.00	769.13	639.195649	0.000000	1.203276	45.386956	0.227437	0.725333	0.796572	0.000000	1.273240
828.00	777.61	644.575861	0.000000	1.206394	45.322815	0.211863	0.741460	0.809076	0.000000	1.273240
832.00	786.31	650.117653	0.000000	1.209482	45.259478	0.197189	0.756982	0.821035	0.000000	1.273240
836.00	794.64	655.347382	0.000000	1.212541	45.196898	0.183961	0.771253	0.831968	0.000000	1.273240
840.00	807.58	664.370458	0.000000	1.215557	45.135370	0.166705	0.790275	0.846449	0.000000	1.273240
844.00	808.25	663.280369	0.000000	1.218568	45.074117	0.158860	0.799077	0.853116	0.000000	1.273240
848.00	811.73	664.511545	0.000000	1.221541	45.013801	0.148490	0.810863	0.862009	0.000000	1.273240
852.00	818.64	668.559748	0.000000	1.224488	44.954162	0.139927	0.820726	0.869422	0.000000	1.273240
856.00	822.93	670.455369	0.000000	1.227425	44.894884	0.138497	0.822384	0.870666	0.000000	1.273240
860.00	827.23	672.365972	0.000000	1.230333	44.836359	0.137072	0.824041	0.871908	0.000000	1.273240
864.00	818.50	663.715559	0.000000	1.233212	44.778549	0.136054	0.825226	0.872795	0.000000	1.273240
868.00	809.73	655.085744	0.000000	1.236063	44.721464	0.135051	0.826396	0.873672	0.000000	1.273240
872.00	804.69	649.530715	0.000000	1.238885	44.665081	0.134233	0.827350	0.874386	0.000000	1.273240
876.00	803.43	647.049412	0.000000	1.241681	44.609388	0.133595	0.828096	0.874944	0.000000	1.273240
880.00	802.15	644.586481	0.000000	1.244448	44.554383	0.132962	0.828837	0.875499	0.000000	1.273240
884.00	789.41	632.947380	0.000000	1.247205	44.499727	0.138114	0.822829	0.870999	0.000000	1.273240
888.00	778.61	622.922034	0.000000	1.249930	44.445828	0.141636	0.818747	0.867937	0.000000	1.273240
892.00	732.54	584.758802	0.000000	1.252720	44.390789	0.176881	0.779002	0.837880	0.000000	1.273240
896.00	686.82	547.057868	0.000000	1.255485	44.336355	0.212795	0.740485	0.808322	0.000000	1.273240
900.00	653.11	519.080904	0.000000	1.258197	44.283125	0.238586	0.714005	0.787741	0.000000	1.273240
904.00	648.83	514.619738	0.000000	1.260788	44.232364	0.231667	0.721014	0.793210	0.000000	1.273240
908.00	644.66	510.276970	0.000000	1.263353	44.182228	0.224462	0.728386	0.798946	0.000000	1.273240
912.00	640.01	505.581821	0.000000	1.265896	44.132654	0.217945	0.735120	0.804169	0.000000	1.273240
916.00	634.82	500.479595	0.000000	1.268416	44.083624	0.212217	0.741089	0.808789	0.000000	1.273240
920.00	629.69	495.461438	0.000000	1.270911	44.035186	0.206270	0.747339	0.813614	0.000000	1.273240
924.00	471.27	369.915590	0.000000	1.273988	43.975611	0.407804	0.562261	0.665109	0.000000	1.273240
928.00	396.10	310.231132	0.000000	1.276803	43.921241	0.527129	0.475083	0.590298	0.000000	1.273240
932.00	355.68	277.991325	0.000000	1.279450	43.870240	0.596535	0.430735	0.550716	0.000000	1.273240
936.00	332.62	259.459477	0.000000	1.281980	43.821588	0.633959	0.408566	0.530487	0.000000	1.273240
940.00	311.96	242.868713	0.000000	1.284482	43.773593	0.669196	0.388737	0.512120	0.000000	1.273240
944.00	304.61	236.700717	0.000000	1.286884	43.727620	0.677910	0.383983	0.507677	0.000000	1.273240
948.00	297.44	230.702236	0.000000	1.289264	43.682170	0.686504	0.379352	0.503332	0.000000	1.273240
952.00	303.45	234.949105	0.000000	1.291538	43.638819	0.666886	0.390006	0.513305	0.000000	1.273240
956.00	324.65	250.947917	0.000000	1.293699	43.597701	0.616486	0.418771	0.539838	0.000000	1.273240
960.00	349.50	269.710712	0.000000	1.295825	43.557322	0.561687	0.452458	0.570246	0.000000	1.273240
964.00	398.61	307.139601	0.000000	1.297808	43.519728	0.465988	0.517917	0.627515	0.000000	1.273240
968.00	473.28	364.153486	0.000000	1.299685	43.484215	0.341782	0.617195	0.710503	0.000000	1.273240
972.00	543.91	417.870057	0.000000	1.301616	43.447742	0.242908	0.709661	0.784343	0.000000	1.273240
976.00	559.80	429.371324	0.000000	1.303765	43.407211	0.224359	0.728493	0.799028	0.000000	1.273240
980.00	578.36	442.885169	0.000000	1.305886	43.367287	0.203105	0.750686	0.816193	0.000000	1.273240
984.00	593.92	454.069722	0.000000	1.307986	43.327817	0.181719	0.773699	0.833836	0.000000	1.273240
988.00	615.89	470.128050	0.000000	1.310046	43.289179	0.153396	0.805265	0.857790	0.000000	1.273240
992.00	634.14	483.303683	0.000000	1.312096	43.250807	0.128057	0.834597	0.879803	0.000000	1.273240
996.00	634.82	483.056903	0.000000	1.314179	43.211861	0.120535	0.843508	0.886446	0.000000	1.273240
1000.00	638.89	485.391308	0.000000	1.316233	43.173551	0.109190	0.857129	0.896560	0.000000	1.273240
1004.00	634.17	481.050069	0.000000	1.318300	43.135059	0.108475	0.857994	0.897201	0.000000	1.273240
1008.00	629.43	476.716550	0.000000	1.320348	43.096975	0.107768	0.858851	0.897836	0.000000	1.273240
1012.00	624.68	472.390639	0.000000	1.322379	43.059294	0.107067	0.859701	0.898465	0.000000	1.273240
1016.00	619.91	468.072222	0.000000	1.324392	43.022009	0.106374	0.860543	0.899088	0.000000	1.273240
1020.00	615.13	463.761189	0.000000	1.326387	42.985115	0.105687	0.861378	0.899706	0.000000	1.273240
1024.00	610.33	459.457430	0.000000	1.328364	42.948606	0.105007	0.862206	0.900318	0.000000	1.273240
1028.00	605.51	455.160837	0.000000	1.330325	42.912475	0.104333	0.863026	0.900925	0.000000	1.273240
1032.00	600.68	450.871304	0.000000	1.332268	42.876719	0.103666	0.863840	0.901527	0.000000	1.273240
1036.00	595.84	446.588726	0.000000	1.334195	42.841330	0.103004	0.864647	0.902123	0.000000	1.273240
1040.00	590.98	442.313000	0.000000	1.336104	42.806304	0.102349	0.865447	0.902714	0.000000	1.273240
1044.00	586.10	438.044024	0.000000	1.337998	42.771636	0.101700	0.866240	0.903300	0.000000	1.273240
1048.00	581.21	433.781697	0.000000	1.339875	42.737320	0.101057	0.867027	0.903881	0.000000	1.273240
1052.00	559.65	417.089956	0.000000	1.341803	42.702144	0.121966	0.841806	0.885179	0.000000	1.273240
1056.00	540.01	401.880973	0.000000	1.343712	42.667353	0.142131	0.818176	0.867508	0.000000	1.273240
1060.00	525.57	390.590528	0.000000	1.345587	42.633245	0.156151	0.802139	0.855430	0.000000	1.273240
1064.00	513.34	380.975325	0.000000	1.347439	42.599612	0.167618	0.789256	0.845676	0.000000	1.273240
1068.00	502.43	372.373413	0.000000	1.349271	42.566393	0.177580	0.778233	0.837294	0.000000	1.273240
1072.00	492.44	364.478361	0.000000	1.351085	42.533555	0.186516	0.768475	0.829845	0.000000	1.273240
1076.00	483.14	357.117381	0.000000	1.352881	42.501079	0.194696	0.759652	0.823085	0.000000	1.273240
1080.00	474.38	350.181151	0.000000	1.354661	42.468951	0.202286	0.751554	0.816861	0.000000	1.273240
1084.00	466.06	343.595025	0.000000	1.356425	42.437159	0.209400	0.744042	0.811070	0.000000	1.273240
1088.00	458.12	337.305181	0.000000	1.358174	42.405697	0.216121	0.737016	0.805638	0.000000	1.273240
